SpectraSmart Spectrum 2.10.0.0
--------- Device Information -----------
Spectrum Name : ,光譜_0
Saving Time : ,2025/05/24 14:15:34
Spectro-Module Model Name :,
Spectro-Module Serial Number :,OS361AC55003443
Wavelength Start :,300
Wavelength End :,1000
Wavelength Unit :,Wavelength(nm)
Spectrum Unit :,Intensity(Counts)
MB Temperature(°C) :,NA
TEC Temperature(°C) :,NA
-----------Spectrum Setting ------------
Integration Time :,800ms
Average :,1
Boxcar :,0
Background removal :, enabled
linearity correction :, enabled
SC :, disabled
Intensity correction :, disabled
DWT denoise :, enabled
savitzky-golay :, disabled
FFT :, disabled
Running average :, disabled
Kalman :, disabled
High pass :, disabled
---------------BEGIN--------------------
Wavelength(nm)      ,   Intensity(Counts)
300.27,      -118.7373
300.89,      -119.2451
301.51,      -75.90625
302.13,      -16.89941
302.75,       12.55762
303.37,      0.6455078
303.99,      -37.99414
304.62,      -78.57422
305.24,      -82.97803
305.86,      -43.43652
306.48,       25.09424
307.11,       95.94238
307.73,       128.4521
308.36,       113.2764
308.98,       64.70215
309.61,        6.69043
310.23,      -23.06152
310.86,      -14.25879
311.48,       20.71777
312.11,       65.60596
312.74,       94.80713
313.36,       100.0361
313.99,       89.31055
314.62,       70.63477
315.25,       56.02246
315.88,           49.5
316.51,        46.7998
317.14,        43.2334
317.77,       32.50391
318.40,       13.71777
319.03,      -9.490723
319.66,      -30.13428
320.29,      -38.63379
320.93,      -32.31689
321.56,      -13.05469
322.19,       11.16406
322.83,       27.68359
323.46,       33.03711
324.10,       28.70605
324.73,       24.41699
325.37,       36.55078
326.00,       66.37061
326.64,       106.7051
327.27,       140.9839
327.91,       143.1992
328.55,       109.2456
329.19,       50.44824
329.83,      -16.07422
330.46,      -63.36572
331.10,      -82.52002
331.74,      -81.36328
332.38,      -64.75684
333.02,      -41.03418
333.66,      -16.02539
334.31,       11.55811
334.95,       35.14258
335.59,       43.36182
336.23,       35.32861
336.87,       15.60547
337.52,       -9.22168
338.16,      -27.01465
338.81,      -33.33008
339.45,      -32.88379
340.09,      -21.17041
340.74,        8.63623
341.39,       53.41797
342.03,       109.1367
342.68,       156.7515
343.33,       165.5269
343.97,       131.0195
344.62,       65.08984
345.27,      -11.08789
345.92,      -62.69727
346.57,       -78.7627
347.22,      -69.35156
347.87,      -40.54004
348.52,      -3.476563
349.17,       35.07617
349.82,       78.60059
350.47,       117.4473
351.12,         135.25
351.77,       130.4141
352.43,       106.8574
353.08,       79.02148
353.73,       72.65039
354.39,       92.56152
355.04,       128.0317
355.70,       168.5791
356.35,       197.0361
357.01,       206.4429
357.66,       203.1846
358.32,       182.5957
358.98,        136.958
359.63,       69.96582
360.29,      -12.99512
360.95,      -91.09766
361.61,      -131.4932
362.27,      -126.1094
362.93,      -82.67285
363.59,      -19.61914
364.25,       31.62402
364.91,        60.4082
365.57,       72.38184
366.23,       77.09521
366.89,       91.45605
367.55,       118.2871
368.22,       149.1895
368.88,       172.4453
369.54,       171.3057
370.21,       143.2559
370.87,       96.74707
371.54,       44.41113
372.20,       5.166016
372.87,      -14.81445
373.53,      -20.55469
374.20,      -16.95313
374.87,      -12.65918
375.53,      -11.24951
376.20,      -9.579102
376.87,      -9.043945
377.54,      -12.52832
378.21,      -19.58105
378.87,      -29.82813
379.54,      -39.33057
380.21,      -40.43018
380.88,      -32.41602
381.56,      -19.61182
382.23,      -4.818848
382.90,        7.29541
383.57,       14.33008
384.24,       18.69141
384.92,       15.00977
385.59,      -5.366211
386.26,      -41.17285
386.94,      -88.16699
387.61,      -131.0342
388.29,      -145.3462
388.96,      -126.5576
389.64,      -82.85742
390.31,      -29.81348
390.99,       6.806641
391.67,       19.31836
392.34,       15.30127
393.02,       1.683105
393.70,      -9.779785
394.38,       -14.2207
395.06,      -15.73828
395.74,      -12.68848
396.42,      -1.900391
397.10,          16.25
397.78,       41.61035
398.46,       68.16504
399.14,       85.68359
399.82,       90.79883
400.50,       83.99121
401.19,       70.89063
401.87,        61.3291
402.55,       57.94141
403.24,       59.66992
403.92,       58.38867
404.61,       40.84473
405.29,        6.40625
405.98,      -38.96387
406.66,      -78.87109
407.35,      -88.21484
408.03,      -62.18359
408.72,      -9.040527
409.41,       52.30957
410.10,       91.68994
410.79,        100.439
411.47,        85.6167
412.16,       61.35693
412.85,       51.43604
413.54,       61.33984
414.23,       82.46094
414.92,       102.1826
415.61,       100.9111
416.31,       75.05664
417.00,       34.30566
417.69,      -9.811523
418.38,      -40.48438
419.08,      -51.57813
419.77,      -47.79443
420.46,      -32.25391
421.16,      -9.891602
421.85,        15.3457
422.55,       42.87207
423.24,          69.25
423.94,       89.10645
424.64,       100.2451
425.33,       102.9224
426.03,       96.31934
426.73,       80.27539
427.42,        57.1709
428.12,       29.28711
428.82,       2.916992
429.52,      -11.92969
430.22,      -13.91504
430.92,      -7.585938
431.62,       3.908203
432.32,        13.9043
433.02,       20.63135
433.72,       29.73828
434.43,       32.61963
435.13,       16.51611
435.83,      -19.29395
436.53,      -75.62305
437.24,      -124.0811
437.94,      -118.8701
438.65,      -54.43506
439.35,        57.1792
440.06,       164.5347
440.76,        184.314
441.47,       103.1074
442.17,      -50.24805
442.88,      -209.4141
443.59,      -268.1465
444.29,      -201.6738
445.00,      -44.75195
445.71,       144.9683
446.42,       274.8057
447.13,       316.4492
447.84,       296.0977
448.55,       245.2432
449.26,       215.2207
449.97,       220.7529
450.68,       241.2153
451.39,       259.3584
452.10,       251.0894
452.82,       210.6655
453.53,       152.6431
454.24,       87.87744
454.95,       29.39355
455.67,      -15.59277
456.38,       -49.1875
457.10,      -69.07422
457.81,      -71.82959
458.53,      -57.93408
459.24,      -28.46582
459.96,       11.14063
460.68,       51.80078
461.39,       88.76563
462.11,       120.4951
462.83,        147.498
463.55,       172.0327
464.27,        195.312
464.98,       218.5166
465.70,       237.8779
466.42,       248.0249
467.14,       249.7227
467.86,       244.6553
468.58,       248.0103
469.31,       282.7559
470.03,       352.1914
470.75,       450.4189
471.47,       551.4346
472.20,       613.6201
472.92,       628.0449
473.64,       604.9683
474.37,       576.0664
475.09,       593.0122
475.82,        666.333
476.54,       779.4238
477.27,       895.9277
477.99,       958.0513
478.72,       952.4873
479.45,        897.916
480.17,       828.9443
480.90,       800.5381
481.63,       826.5605
482.36,       888.7813
483.09,       958.7734
483.81,        992.063
484.54,       976.1396
485.27,       925.3604
486.00,        860.418
486.73,       813.1221
487.47,        793.207
488.20,       791.8662
488.93,        794.168
489.66,       776.9287
490.39,       736.2529
491.13,       682.7002
491.86,       635.3789
492.59,       622.5405
493.33,       650.8232
494.06,       711.1543
494.80,       785.1494
495.53,       843.8867
496.27,       879.4023
497.00,       899.7354
497.74,       920.4072
498.48,       965.9365
499.22,       1043.326
499.95,       1146.257
500.69,       1260.016
501.43,       1361.982
502.17,       1446.901
502.91,       1520.719
503.65,       1602.998
504.39,       1724.113
505.13,       1889.617
505.87,       2090.804
506.61,       2300.223
507.35,       2473.929
508.09,        2604.88
508.83,       2709.519
509.58,       2822.296
510.32,       2997.671
511.06,       3248.153
511.81,       3554.663
512.55,       3887.579
513.30,       4200.096
514.04,       4476.065
514.79,       4726.275
515.53,       4963.437
516.28,       5209.186
517.02,       5469.699
517.77,       5736.559
518.52,       6002.307
519.27,        6255.96
520.01,       6498.676
520.76,        6742.49
521.51,       6996.937
522.26,       7274.296
523.01,       7578.365
523.76,       7900.898
524.51,       8244.561
525.26,       8614.831
526.01,       9003.081
526.76,       9398.887
527.51,        9772.42
528.27,       10078.44
529.02,       10307.85
529.77,          10475
530.52,       10605.43
531.28,       10742.81
532.03,       10902.24
532.79,       11071.78
533.54,       11248.13
534.30,       11424.63
535.05,       11593.59
535.81,       11756.08
536.56,        11896.8
537.32,       11989.41
538.08,       12030.51
538.83,       12029.89
539.59,       12003.91
540.35,       11980.63
541.11,       11971.21
541.87,       11969.79
542.63,       11979.19
543.39,       12001.96
544.15,       12034.19
544.91,       12074.15
545.67,       12105.22
546.43,       12099.89
547.19,       12051.84
547.95,       11967.42
548.71,       11860.84
549.48,       11757.63
550.24,       11664.97
551.00,       11574.42
551.77,       11479.74
552.53,       11370.84
553.29,       11243.29
554.06,       11101.46
554.82,       10943.32
555.59,       10764.21
556.36,       10566.03
557.12,       10352.67
557.89,       10132.18
558.66,       9917.402
559.42,       9712.973
560.19,       9516.371
560.96,       9326.387
561.73,       9140.232
562.50,       8953.723
563.27,       8764.061
564.04,       8564.695
564.81,       8346.012
565.58,       8105.017
566.35,       7844.062
567.12,       7564.754
567.89,       7270.866
568.66,       6967.223
569.43,       6657.093
570.21,       6350.448
570.98,       6060.951
571.75,       5794.055
572.53,       5550.677
573.30,        5324.21
574.07,       5102.102
574.85,       4880.204
575.62,       4658.776
576.40,       4446.621
577.17,       4258.374
577.95,       4094.667
578.73,       3949.816
579.50,       3803.382
580.28,       3623.824
581.06,       3406.968
581.84,       3164.477
582.62,       2925.095
583.39,       2734.665
584.17,       2603.707
584.95,       2517.466
585.73,       2450.864
586.51,       2363.145
587.29,        2241.91
588.07,       2099.132
588.86,       1948.028
589.64,       1809.786
590.42,       1691.981
591.20,       1587.918
591.98,       1492.755
592.77,       1399.886
593.55,        1307.57
594.33,       1219.396
595.12,       1139.604
595.90,        1073.72
596.69,       1021.262
597.47,       977.2646
598.26,       934.6719
599.04,       883.5566
599.83,       820.9771
600.62,       750.6133
601.40,       676.0776
602.19,       602.5225
602.98,       535.3662
603.77,       478.4111
604.55,        435.749
605.34,       412.5342
606.13,       410.3408
606.92,       425.7725
607.71,       460.6504
608.50,       518.3164
609.29,       591.6465
610.08,       670.2334
610.87,       734.3027
611.67,       755.2319
612.46,       725.7764
613.25,       655.3428
614.04,       554.8223
614.84,       443.0264
615.63,       332.4795
616.42,       225.0977
617.22,       133.9473
618.01,       76.68848
618.81,        56.9873
619.60,       72.07666
620.40,       108.9355
621.19,       143.8726
621.99,       167.7798
622.78,        182.874
623.58,       191.8789
624.38,       201.7988
625.18,       214.0674
625.97,       224.3164
626.77,        229.627
627.57,       227.1572
628.37,       216.9131
629.17,       201.2061
629.97,       184.1748
630.77,       171.9355
631.57,       165.0405
632.37,       160.3193
633.17,       154.6631
633.97,       142.2856
634.77,       122.8389
635.58,       102.2681
636.38,        78.5498
637.18,       48.07178
637.98,       13.06543
638.79,      -26.32959
639.59,      -52.71582
640.40,      -38.08008
641.20,       18.74072
642.00,        106.125
642.81,       192.5039
643.62,       227.1499
644.42,       199.6841
645.23,       127.9585
646.03,       39.79639
646.84,      -19.22363
647.65,      -34.38086
648.46,      -19.62207
649.26,       16.75684
650.07,        60.9668
650.88,       104.2676
651.69,       149.9268
652.50,        187.938
653.31,       201.4434
654.12,       187.5005
654.93,       149.0596
655.74,        98.2373
656.55,       56.87061
657.36,       32.38184
658.17,       21.53955
658.98,       19.41357
659.80,       16.04736
660.61,       9.473633
661.42,       4.855469
662.23,       6.006348
663.05,       18.08545
663.86,       40.99121
664.68,       68.98535
665.49,       98.64844
666.31,       126.2666
667.12,        148.334
667.94,       164.5005
668.75,       169.1831
669.57,       154.0234
670.39,        119.748
671.20,       71.70459
672.02,       21.08496
672.84,      -15.00391
673.66,      -30.17285
674.47,        -26.875
675.29,      -9.729492
676.11,       13.05664
676.93,       36.06445
677.75,       57.05176
678.57,       76.73438
679.39,       96.43652
680.21,        115.127
681.03,        133.417
681.85,         138.54
682.68,       111.4082
683.50,       52.57422
684.32,      -30.43164
685.14,      -106.7813
685.96,      -127.5303
686.79,      -84.98242
687.61,       3.768555
688.44,       101.4111
689.26,       147.0239
690.08,       125.7017
690.91,       58.05273
691.73,      -30.09912
692.56,      -96.47363
693.39,      -126.3833
694.21,      -133.5684
695.04,      -121.5366
695.87,      -95.77539
696.69,      -61.77441
697.52,      -15.97754
698.35,        28.5293
699.18,       48.86328
700.00,       40.90137
700.83,        8.55957
701.66,       -30.7085
702.49,      -46.07227
703.32,      -31.29883
704.15,       3.377441
704.98,        41.7002
705.81,       56.55908
706.64,         42.354
707.47,       12.07324
708.31,      -24.49219
709.14,      -52.65625
709.97,      -65.69727
710.80,      -69.63086
711.64,      -57.70801
712.47,      -18.65332
713.30,       44.79297
714.14,       126.7358
714.97,        204.083
715.81,       240.1348
716.64,        226.394
717.48,       172.3154
718.31,       99.95215
719.15,       46.22412
719.98,        23.0625
720.82,        23.0542
721.66,       33.00488
722.49,       30.33496
723.33,       10.08203
724.17,      -18.91113
725.01,      -42.56641
725.84,      -39.96484
726.68,      -8.131836
727.52,       42.74902
728.36,       95.55859
729.20,       124.5981
730.04,        122.915
730.88,       98.50879
731.72,       62.88672
732.56,       34.80957
733.40,       20.84082
734.25,       15.80322
735.09,       16.08789
735.93,       15.99268
736.77,       13.07813
737.61,       9.686523
738.46,       6.360352
739.30,       2.882813
740.14,     -0.7661133
740.99,      -4.660156
741.83,      -10.03027
742.68,      -18.70459
743.52,       -29.1582
744.37,      -38.52344
745.21,      -42.64697
746.06,       -34.8252
746.90,      -14.92871
747.75,       11.19434
748.60,       42.49414
749.44,       77.40527
750.29,       112.5986
751.14,       148.7246
751.99,       171.6797
752.84,        159.752
753.68,       111.9697
754.53,       36.16602
755.38,      -39.06201
756.23,       -68.4458
757.08,      -41.48486
757.93,       30.42578
758.78,       116.6934
759.63,       167.3193
760.48,       168.4893
761.33,       131.6406
762.19,       84.54199
763.04,       72.52734
763.89,       104.9307
764.74,       166.4453
765.59,       224.1758
766.45,       226.9209
767.30,       165.3584
768.15,       59.18262
769.01,      -54.14551
769.86,      -116.1943
770.72,       -112.501
771.57,       -62.1543
772.43,       5.380859
773.28,       42.66016
774.14,       35.85352
774.99,      0.6914063
775.85,      -47.24414
776.71,      -83.41504
777.56,      -99.50977
778.42,      -105.3271
779.28,       -104.458
780.14,       -100.915
780.99,      -97.36914
781.85,      -90.47754
782.71,      -83.57666
783.57,      -84.01709
784.43,      -91.92139
785.29,      -104.6841
786.15,      -116.1279
787.01,      -115.3438
787.87,      -100.2383
788.73,      -75.72754
789.59,       -44.4209
790.45,      -11.16309
791.31,       21.63037
792.18,       56.85547
793.04,         86.979
793.90,       100.4502
794.76,       96.11279
795.63,       74.63232
796.49,       54.04883
797.35,        64.3208
798.22,       108.9375
799.08,       177.8828
799.95,       242.1152
800.81,       254.7021
801.68,       207.0225
802.54,       116.3154
803.41,       13.17969
804.27,      -53.33105
805.14,      -69.25244
806.00,       -49.5708
806.87,      -11.05518
807.74,       18.51514
808.61,       29.44434
809.47,       31.68652
810.34,       27.19287
811.21,       18.25879
812.08,       7.227539
812.95,      -9.564453
813.82,      -24.98389
814.68,      -25.64209
815.55,       -9.63916
816.42,       20.42432
817.29,       52.16553
818.16,       64.68164
819.04,       53.70996
819.91,        25.2207
820.78,      -6.806641
821.65,      -19.33398
822.52,      -7.625977
823.39,       20.08398
824.27,       51.13281
825.14,       64.77148
826.01,       56.89307
826.88,       37.61182
827.76,       14.21973
828.63,      -1.937988
829.50,      -6.584961
830.38,      -6.469727
831.25,        4.38916
832.13,       36.29443
833.00,       86.50928
833.88,        150.644
834.75,       204.7114
835.63,       210.2163
836.51,       161.3306
837.38,       71.31543
838.26,      -29.93848
839.14,      -93.53516
840.01,      -106.2197
840.89,      -82.08398
841.77,      -40.08594
842.65,      -12.16406
843.53,      -8.558594
844.40,      -18.03027
845.28,      -34.70605
846.16,      -50.26807
847.04,      -60.02539
847.92,      -67.76123
848.80,      -70.26953
849.68,      -60.30371
850.56,      -38.24023
851.44,      -7.739258
852.32,       25.91113
853.21,       53.33594
854.09,        70.8208
854.97,       81.21191
855.85,       80.94238
856.73,       65.00879
857.62,        35.5127
858.50,      -4.648438
859.38,      -41.50293
860.26,      -52.71582
861.15,      -34.24316
862.03,       6.888672
862.92,        55.7749
863.80,       87.39551
864.69,       94.71387
865.57,       85.27539
866.46,        66.5332
867.34,       51.23828
868.23,       43.94336
869.11,       39.36328
870.00,       38.41016
870.89,       43.19141
871.77,       52.60156
872.66,       67.03027
873.55,       78.81152
874.43,        74.9165
875.32,       53.07227
876.21,       16.51611
877.10,      -23.98096
877.99,      -50.61768
878.88,      -58.91064
879.77,      -52.95898
880.65,      -42.77783
881.54,      -45.38379
882.43,       -63.4502
883.32,      -89.59668
884.21,      -113.4131
885.10,      -118.0723
886.00,      -100.8066
886.89,      -71.18848
887.78,      -34.60156
888.67,       1.044922
889.56,       31.99414
890.45,       62.21289
891.35,        80.8418
892.24,       75.95898
893.13,       48.89697
894.02,      -12.13623
894.92,      -79.03369
895.81,      -68.27539
896.71,        9.25293
897.60,       54.06543
898.49,       53.34668
899.39,       60.61816
900.28,       71.41406
901.18,       47.58496
902.07,      -2.643555
902.97,      -43.09766
903.87,      -66.06982
904.76,      -80.71338
905.66,      -84.37744
906.55,      -72.74854
907.45,      -47.11035
908.35,      -8.494141
909.25,        35.5918
910.14,       71.70898
911.04,       94.77148
911.94,       105.8799
912.84,       106.5083
913.74,       100.5664
914.63,       90.40723
915.53,       76.21875
916.43,       59.03906
917.33,       40.47559
918.23,       22.32422
919.13,       5.787109
920.03,      -5.567871
920.93,      -6.898926
921.83,       1.021484
922.73,       14.42969
923.63,       26.77051
924.54,       27.85352
925.44,       14.79883
926.34,      -8.521484
927.24,      -40.07715
928.14,      -76.68213
929.05,      -113.7012
929.95,      -148.4917
930.85,      -173.5142
931.76,      -177.4482
932.66,      -158.6377
933.56,      -122.2397
934.47,      -73.75488
935.37,      -22.54297
936.28,       25.31445
937.18,       69.68506
938.08,       102.3247
938.99,       111.7358
939.90,       97.15674
940.80,       62.10059
941.71,       20.50684
942.61,      -4.674805
943.52,      -6.790039
944.43,       9.803711
945.33,       34.54004
946.24,       49.07227
947.15,       48.08691
948.05,       36.12988
948.96,       21.68066
949.87,       18.41748
950.78,       28.41455
951.69,       45.62256
952.59,       59.35303
953.50,       53.20605
954.41,       25.09766
955.32,      -16.27441
956.23,      -59.69141
957.14,      -88.19434
958.05,      -95.75781
958.96,      -87.54883
959.87,      -65.29102
960.78,      -31.82324
961.69,       8.008301
962.60,       51.76855
963.51,       90.70898
964.42,       111.2837
965.34,       110.1382
966.25,       91.02637
967.16,       58.90186
968.07,       22.82617
968.99,      -11.25879
969.90,      -42.53662
970.81,      -65.18262
971.72,      -71.08398
972.64,      -59.45313
973.55,      -33.40137
974.46,      0.8994141
975.38,       32.72852
976.29,        56.9043
977.21,       74.13965
978.12,        81.4873
979.04,       75.63281
979.95,       57.64844
980.87,       29.52441
981.78,      -1.265625
982.70,       -22.6084
983.61,      -30.27637
984.53,      -25.71924
985.45,      -12.19482
986.36,        3.80957
987.28,        19.3042
988.20,       34.60449
989.11,       49.97168
990.03,       66.16504
990.95,       82.11133
991.87,       95.83105
992.79,       103.1729
993.70,       98.50586
994.62,       81.88379
995.54,       56.69531
996.46,       29.34668
997.38,        9.90918
998.30,        1.32959
999.22,      0.7231445
