SpectraSmart Spectrum 2.10.0.0
--------- Device Information -----------
Spectrum Name : ,光譜_0
Saving Time : ,2025/05/24 15:21:55
Spectro-Module Model Name :,
Spectro-Module Serial Number :,OS361AC55003443
Wavelength Start :,300
Wavelength End :,1000
Wavelength Unit :,Wavelength(nm)
Spectrum Unit :,Intensity(Counts)
MB Temperature(°C) :,NA
TEC Temperature(°C) :,NA
-----------Spectrum Setting ------------
Integration Time :,800ms
Average :,1
Boxcar :,0
Background removal :, enabled
linearity correction :, enabled
SC :, disabled
Intensity correction :, disabled
DWT denoise :, enabled
savitzky-golay :, disabled
FFT :, disabled
Running average :, disabled
Kalman :, disabled
High pass :, disabled
---------------BEGIN--------------------
Wavelength(nm)      ,   Intensity(Counts)
300.27,       90.78662
300.89,       88.52246
301.51,       57.99854
302.13,       14.67041
302.75,      -16.48975
303.37,      -26.27051
303.99,      -22.51611
304.62,      -7.790527
305.24,       14.76709
305.86,       40.82666
306.48,        69.5918
307.11,       96.04883
307.73,       111.0547
308.36,       112.1489
308.98,        102.458
309.61,       80.53711
310.23,       45.44482
310.86,      0.7758789
311.48,      -51.14941
312.11,      -94.80469
312.74,      -106.5332
313.36,      -82.23535
313.99,      -28.06738
314.62,       35.41943
315.25,       74.21045
315.88,       79.50879
316.51,        59.4375
317.14,       31.74023
317.77,        26.4873
318.40,       49.92773
319.03,       90.37012
319.66,       131.5762
320.29,       148.1465
320.93,       134.4575
321.56,       102.2075
322.19,       62.03271
322.83,       29.74072
323.46,       12.04395
324.10,       3.635742
324.73,       7.072754
325.37,       26.81104
326.00,       59.98193
326.64,       103.4526
327.27,       144.0879
327.91,       160.4541
328.55,       147.8301
329.19,       112.6128
329.83,       65.21533
330.46,       23.62207
331.10,      -5.133789
331.74,      -24.83057
332.38,      -35.18799
333.02,      -36.77734
333.66,      -31.02783
334.31,       -16.8125
334.95,       0.425293
335.59,       11.19873
336.23,       12.56934
336.87,       4.951172
337.52,      -5.869629
338.16,      -10.01172
338.81,      -4.095703
339.45,       11.62256
340.09,       28.77002
340.74,       34.35498
341.39,       25.58789
342.03,       3.247559
342.68,      -15.26367
343.33,      -2.205566
343.97,       45.15332
344.62,       118.2881
345.27,       184.0308
345.92,       189.3613
346.57,       126.5313
347.22,       15.23242
347.87,      -101.0933
348.52,      -153.1045
349.17,      -124.0625
349.82,      -36.55078
350.47,       74.71191
351.12,       153.6719
351.77,       181.7578
352.43,        174.312
353.08,       146.2783
353.73,       121.5986
354.39,       109.3584
355.04,       101.7676
355.70,       93.02441
356.35,       76.41797
357.01,       50.70557
357.66,       19.75342
358.32,      -5.881348
358.98,      -12.12988
359.63,       2.879395
360.29,       35.35352
360.95,       66.67676
361.61,       67.29736
362.27,       32.64551
362.93,      -27.60107
363.59,      -87.93652
364.25,      -107.1387
364.91,      -76.80029
365.57,      -11.47607
366.23,       63.97363
366.89,       109.7227
367.55,       114.3691
368.22,       90.31885
368.88,       51.71191
369.54,       21.41113
370.21,       7.503906
370.87,       2.489746
371.54,       3.041504
372.20,       4.602051
372.87,       5.054199
373.53,       7.734375
374.20,       11.57227
374.87,       13.17676
375.53,       11.99756
376.20,       7.945313
376.87,       2.976074
377.54,       1.197266
378.21,        3.36377
378.87,       8.029785
379.54,       13.33496
380.21,       16.18213
380.88,       15.87305
381.56,       13.88916
382.23,        10.9082
382.90,       8.024414
383.57,       5.685059
384.24,       2.947266
384.92,       1.388672
385.59,       3.507813
386.26,       9.463867
386.94,       19.10156
387.61,       27.77539
388.29,       28.03711
388.96,       18.71045
389.64,        1.54541
390.31,      -15.74902
390.99,      -20.64648
391.67,      -10.93213
392.34,       9.581055
393.02,       31.15039
393.70,       37.79834
394.38,       26.70996
395.06,       4.185059
395.74,      -20.26953
396.42,      -31.16309
397.10,      -25.00781
397.78,      -8.808105
398.46,       13.40625
399.14,       34.97119
399.82,       52.90088
400.50,        71.4541
401.19,       83.45654
401.87,       77.37402
402.55,       53.15137
403.24,       12.75879
403.92,      -23.74609
404.61,      -23.63574
405.29,        17.7832
405.98,       90.11279
406.66,       163.9702
407.35,       191.8926
408.03,       163.4453
408.72,       93.59326
409.41,       11.26172
410.10,      -36.94922
410.79,       -37.9585
411.47,      -5.070313
412.16,       41.10986
412.85,       67.35547
413.54,       64.37451
414.23,        43.0542
414.92,       18.23584
415.61,       12.69775
416.31,       31.33887
417.00,       63.98389
417.69,       96.68311
418.38,       109.2104
419.08,       95.97803
419.77,       64.06592
420.46,       24.22559
421.16,      -7.563965
421.85,      -24.75244
422.55,      -28.89844
423.24,      -26.27539
423.94,      -27.20215
424.64,      -33.71875
425.33,      -43.65234
426.03,      -45.10205
426.73,      -19.52148
427.42,       33.30078
428.12,       104.0532
428.82,       169.0244
429.52,       191.7031
430.22,       164.7041
430.92,       100.3857
431.62,        22.3916
432.32,      -31.01904
433.02,      -47.74316
433.72,      -36.99023
434.43,      -10.53271
435.13,       11.13623
435.83,       22.20264
436.53,       31.02441
437.24,       42.82422
437.94,       64.95361
438.65,       98.30273
439.35,       135.5503
440.06,       174.4512
440.76,       213.6182
441.47,        250.312
442.17,       284.9028
442.88,       309.4043
443.59,       311.1216
444.29,       289.7944
445.00,       250.6733
445.71,       209.2407
446.42,       190.2075
447.13,       199.3809
447.84,       229.5605
448.55,       267.1309
449.26,       289.6514
449.97,       289.7949
450.68,        272.874
451.39,       246.0693
452.10,       221.3696
452.82,       202.5625
453.53,       186.4224
454.24,       168.6743
454.95,       142.2964
455.67,       108.6162
456.38,       75.13818
457.10,       49.63818
457.81,       43.18262
458.53,       57.80029
459.24,       86.00879
459.96,       127.1162
460.68,        180.416
461.39,       240.6245
462.11,       306.0039
462.83,       357.6543
463.55,       366.4258
464.27,       329.8022
464.98,       258.7476
465.70,       183.4287
466.42,       152.3511
467.14,       178.5532
467.86,       249.8188
468.58,       343.0781
469.31,       419.5571
470.03,       466.8608
470.75,       494.7354
471.47,       516.7363
472.20,       554.4004
472.92,       613.0786
473.64,       684.4561
474.37,       753.6265
475.09,        799.438
475.82,       816.9341
476.54,       811.4292
477.27,       801.6875
477.99,       817.4766
478.72,        863.126
479.45,       928.0342
480.17,       986.3228
480.90,       996.3623
481.63,       951.6548
482.36,       870.6299
483.09,       780.3276
483.81,       723.0435
484.54,       712.1367
485.27,       734.0303
486.00,       779.6475
486.73,       834.4575
487.47,       887.9351
488.20,       940.9438
488.93,        982.874
489.66,       996.1128
490.39,       979.4668
491.13,       941.1792
491.86,       891.6001
492.59,       848.9292
493.33,       823.2095
494.06,       812.3652
494.80,       828.8828
495.53,       890.5581
496.27,       995.5552
497.00,       1135.421
497.74,       1282.544
498.48,       1391.897
499.22,       1452.858
499.95,        1478.95
500.69,       1490.016
501.43,       1520.422
502.17,       1582.762
502.91,       1667.481
503.65,       1774.914
504.39,       1904.688
505.13,       2053.591
505.87,       2224.188
506.61,        2403.51
507.35,       2568.574
508.09,       2715.891
508.83,       2851.923
509.58,       2994.712
510.32,       3174.243
511.06,       3398.857
511.81,       3661.357
512.55,       3947.924
513.30,       4235.293
514.04,       4516.802
514.79,       4798.219
515.53,       5088.502
516.28,       5403.463
517.02,       5742.296
517.77,       6091.126
518.52,       6438.463
519.27,       6767.826
520.01,       7075.042
520.76,       7371.814
521.51,       7653.294
522.26,        7910.61
523.01,       8150.961
523.76,       8380.252
524.51,       8635.715
525.26,       8976.278
526.01,       9406.465
526.76,       9899.327
527.51,       10399.27
528.27,       10818.75
529.02,       11129.09
529.77,       11348.41
530.52,       11503.69
531.28,       11642.75
532.03,       11785.15
532.79,       11922.25
533.54,       12047.41
534.30,       12150.25
535.05,       12231.44
535.81,       12300.71
536.56,       12378.19
537.32,       12490.02
538.08,       12637.96
538.83,       12810.96
539.59,       12974.99
540.35,       13076.57
541.11,        13104.7
541.87,       13075.78
542.63,       13023.35
543.39,       13003.37
544.15,       13029.09
544.91,       13079.16
545.67,        13131.3
546.43,       13150.29
547.19,       13122.77
547.95,       13060.78
548.71,       12963.74
549.48,       12829.74
550.24,       12664.61
551.00,       12470.93
551.77,       12267.24
552.53,       12084.29
553.29,       11929.39
554.06,       11795.26
554.82,       11667.75
555.59,       11521.33
556.36,       11347.29
557.12,       11152.75
557.89,       10940.32
558.66,       10714.58
559.42,       10479.52
560.19,          10234
560.96,       9983.617
561.73,       9738.773
562.50,       9500.992
563.27,       9266.566
564.04,       9032.002
564.81,       8790.242
565.58,       8538.355
566.35,       8279.771
567.12,       8008.611
567.89,       7715.872
568.66,       7403.042
569.43,       7074.357
570.21,       6749.555
570.98,       6459.122
571.75,        6211.18
572.53,       6001.353
573.30,       5808.023
574.07,        5594.94
574.85,       5354.015
575.62,       5094.327
576.40,       4843.811
577.17,       4647.109
577.95,       4512.814
578.73,       4427.414
579.50,       4355.216
580.28,       4239.151
581.06,       4069.368
581.84,       3867.398
582.62,       3674.153
583.39,       3554.722
584.17,       3523.703
584.95,       3556.256
585.73,       3621.023
586.51,       3668.153
587.29,       3680.408
588.07,       3673.796
588.86,        3653.62
589.64,       3627.958
590.42,       3604.788
591.20,       3580.939
591.98,       3570.073
592.77,        3597.14
593.55,       3663.061
594.33,       3754.844
595.12,       3853.383
595.90,       3928.596
596.69,       3966.598
597.47,       3971.881
598.26,       3942.813
599.04,       3879.053
599.83,       3796.059
600.62,       3706.295
601.40,       3628.658
602.19,       3614.585
602.98,       3658.441
603.77,       3716.473
604.55,       3869.706
605.34,       4211.129
606.13,        4866.44
606.92,        5971.08
607.71,        7207.52
608.50,       8421.875
609.29,       9539.359
610.08,       9347.923
610.87,       8765.319
611.67,       11597.58
612.46,       16651.83
613.25,       18505.13
614.04,        16627.8
614.84,       13582.94
615.63,       10372.15
616.42,       8004.715
617.22,       6831.907
618.01,       5886.518
618.81,       5062.306
619.60,       4938.902
620.40,       5301.888
621.19,       5577.491
621.99,       5700.466
622.78,       5681.094
623.58,       5536.021
624.38,       5891.738
625.18,         6537.9
625.97,       6370.539
626.77,       6638.769
627.57,        9195.83
628.37,       14659.99
629.17,        24583.5
629.97,       35405.58
630.77,       38973.07
631.57,       35505.19
632.37,       28080.16
633.17,        23479.7
633.97,       23252.45
634.77,       26845.46
635.58,       24462.48
636.38,       16255.03
637.18,         9982.3
637.98,       6840.717
638.79,       4957.184
639.59,       3947.187
640.40,        2818.12
641.20,       1374.517
642.00,       637.7598
642.81,       807.6597
643.62,       1550.042
644.42,       2750.049
645.23,       4315.444
646.03,       5788.093
646.84,        6522.01
647.65,       6358.464
648.46,       5444.083
649.26,       4137.139
650.07,       3068.412
650.88,       2451.276
651.69,       2145.088
652.50,       2032.813
653.31,       1898.599
654.12,       1671.926
654.93,       1461.123
655.74,       1290.756
656.55,       1164.288
657.36,       1082.632
658.17,       1005.387
658.98,       925.6997
659.80,       860.5601
660.61,       808.7515
661.42,       768.2617
662.23,       727.1089
663.05,       664.0591
663.86,       579.5273
664.68,       484.3296
665.49,       404.2603
666.31,       379.3154
667.12,       415.9414
667.94,       496.9736
668.75,       595.5923
669.57,       669.5508
670.39,       702.3486
671.20,       702.0068
672.02,       673.3472
672.84,       625.7773
673.66,       567.3848
674.47,       499.9897
675.29,       430.0503
676.11,       368.3911
676.93,       320.8247
677.75,       287.4043
678.57,       276.9043
679.39,       300.0728
680.21,        353.314
681.03,       428.6128
681.85,       499.6694
682.68,        525.873
683.50,       497.4082
684.32,       424.5425
685.14,       330.4277
685.96,       254.3413
686.79,       209.4878
687.61,       188.0298
688.44,       178.8491
689.26,       162.3823
690.08,       134.2944
690.91,       103.5918
691.73,       81.08838
692.56,       81.68701
693.39,        107.751
694.21,       151.3931
695.04,       199.9741
695.87,       235.3311
696.69,       251.1802
697.52,       250.5645
698.35,       240.8887
699.18,       235.1172
700.00,       236.2227
700.83,        239.812
701.66,       238.6616
702.49,       221.3232
703.32,       187.0693
704.15,       143.2813
704.98,       98.95996
705.81,       67.34424
706.64,       52.42725
707.47,       49.20264
708.31,       56.13672
709.14,       70.32373
709.97,       88.61768
710.80,       111.9458
711.64,       131.1377
712.47,       131.6396
713.30,       111.8789
714.14,       75.66406
714.97,       38.52539
715.81,       26.27051
716.64,       44.19141
717.48,       84.32422
718.31,       130.8027
719.15,       157.4258
719.98,       157.5547
720.82,       139.9883
721.66,       115.3604
722.49,       100.9507
723.33,       101.7251
724.17,       110.3149
725.01,       123.1714
725.84,       135.4648
726.68,       143.9917
727.52,       150.9585
728.36,       151.7246
729.20,       137.9922
730.04,       110.1494
730.88,       72.17334
731.72,       33.79541
732.56,       10.86133
733.40,       7.771973
734.25,       20.19141
735.09,       43.17041
735.93,       67.80566
736.77,       90.15723
737.61,       112.3877
738.46,       132.0381
739.30,       145.5264
740.14,       152.3848
740.99,       151.9917
741.83,       149.6162
742.68,       154.6226
743.52,       168.9731
744.37,       190.6563
745.21,       212.1172
746.06,       221.1958
746.90,       214.7178
747.75,       194.9282
748.60,       171.0742
749.44,       158.0205
750.29,       158.7881
751.14,       169.7764
751.99,       177.8926
752.84,       162.0894
753.68,       119.5938
754.53,       58.76611
755.38,      -1.438477
756.23,      -31.44336
757.08,      -24.46826
757.93,       10.02393
758.78,       54.54297
759.63,        80.9917
760.48,       81.00244
761.33,       62.11963
762.19,       35.44434
763.04,       19.20068
763.89,       18.27783
764.74,       26.07568
765.59,       34.80029
766.45,       32.66113
767.30,       17.63135
768.15,      -3.583496
769.01,       -23.9668
769.86,      -33.82471
770.72,      -29.63379
771.57,      -14.64941
772.43,       9.213867
773.28,       39.31592
774.14,       72.35742
774.99,       106.3037
775.85,       137.3359
776.71,       160.0171
777.56,       171.9546
778.42,       173.6919
779.28,       164.3457
780.14,       143.3105
780.99,       113.3115
781.85,       77.78955
782.71,       43.78271
783.57,        21.7749
784.43,       14.68652
785.29,       19.46777
786.15,       33.77393
787.01,       52.83398
787.87,       73.08203
788.73,       94.70703
789.59,       111.1143
790.45,       112.3799
791.31,       97.38379
792.18,       68.83008
793.04,       36.84863
793.90,       18.35889
794.76,       17.85596
795.63,       31.25342
796.49,        50.4375
797.35,       61.70996
798.22,       60.94922
799.08,       51.71289
799.95,       39.47949
800.81,       33.08984
801.68,       34.35107
802.54,       39.59619
803.41,        43.1377
804.27,       36.41895
805.14,       18.30957
806.00,      -6.538086
806.87,      -31.97266
807.74,      -48.87402
808.61,      -54.12451
809.47,       -50.3916
810.34,        -39.354
811.21,      -23.86719
812.08,      -6.254883
812.95,       13.26855
813.82,       31.66357
814.68,       44.28027
815.55,       49.79736
816.42,       48.76074
817.29,       43.31055
818.16,       37.50293
819.04,        33.3374
819.91,       30.86914
820.78,       29.85742
821.65,       29.83105
822.52,       30.16895
823.39,        30.0083
824.27,       31.36572
825.14,       36.75586
826.01,        46.4292
826.88,       61.08057
827.76,        72.4082
828.63,       67.73877
829.50,       45.26514
830.38,       6.890137
831.25,      -29.79053
832.13,      -36.63281
833.00,      -9.151855
833.88,       44.97803
834.75,       97.88672
835.63,       105.0151
836.51,        57.6958
837.38,      -30.52881
838.26,      -124.8726
839.14,      -169.8965
840.01,      -152.2178
840.89,      -87.16113
841.77,       -9.22168
842.65,       25.79102
843.53,       5.029785
844.40,      -53.60107
845.28,      -116.6582
846.16,       -130.877
847.04,      -85.15625
847.92,     -0.5039063
848.80,       92.00146
849.68,       144.1284
850.56,       142.9185
851.44,       105.8213
852.32,       50.99121
853.21,       7.013184
854.09,      -15.61133
854.97,      -26.91357
855.85,      -27.51563
856.73,      -17.76904
857.62,     -0.5654297
858.50,       26.50391
859.38,       52.60938
860.26,       58.26172
861.15,       40.97656
862.03,       6.538086
862.92,      -29.64453
863.80,      -41.45361
864.69,      -23.12891
865.57,        15.8999
866.46,       63.91406
867.34,       101.8491
868.23,       122.8423
869.11,       132.6152
870.00,       131.7881
870.89,       121.8179
871.77,        104.769
872.66,       78.99023
873.55,       52.34912
874.43,       37.77979
875.32,       38.70801
876.21,       55.05762
877.10,       75.35059
877.99,       79.83887
878.88,       64.82178
879.77,       34.50879
880.65,       6.750488
881.54,       10.86279
882.43,       50.09375
883.32,       112.2583
884.21,       171.3145
885.10,       186.0576
886.00,       148.3896
886.89,        74.6709
887.78,      -12.40137
888.67,      -76.61377
889.56,       -105.583
890.45,      -110.1353
891.35,      -94.48584
892.24,      -66.13867
893.13,      -31.33545
894.02,       12.18262
894.92,       52.52979
895.81,       69.81689
896.71,       60.44238
897.60,       28.19141
898.49,      -11.77295
899.39,       -33.0127
900.28,      -28.46777
901.18,      -4.687012
902.07,       26.28223
902.97,       44.26611
903.87,        43.7417
904.76,       30.83252
905.66,       14.77588
906.55,       10.12549
907.45,       19.59814
908.35,        36.6748
909.25,       52.20068
910.14,         52.229
911.04,       34.26953
911.94,       5.430176
912.84,      -27.69385
913.74,      -54.87354
914.63,      -72.37305
915.53,      -84.65479
916.43,      -88.49414
917.33,      -79.03711
918.23,      -57.42871
919.13,      -23.61914
920.03,       8.230469
920.93,       14.41455
921.83,      -7.225586
922.73,      -48.20508
923.63,      -86.85352
924.54,      -87.05664
925.44,      -43.08838
926.34,        28.4668
927.24,       108.9712
928.14,       168.5381
929.05,       196.3809
929.95,        203.561
930.85,       186.0317
931.76,       137.7388
932.66,        64.6665
933.56,      -29.76416
934.47,      -115.8086
935.37,      -145.3809
936.28,      -110.5864
937.18,      -26.01709
938.08,       72.57666
938.99,       125.3887
939.90,       116.8442
940.80,       65.29736
941.71,      -5.601074
942.61,      -56.65234
943.52,      -74.41895
944.43,       -71.5083
945.33,      -53.84619
946.24,      -29.94336
947.15,      -5.390137
948.05,       22.80273
948.96,       49.73682
949.87,       65.77832
950.78,       68.51514
951.69,       58.96924
952.59,       40.12354
953.50,        18.6377
954.41,      -1.894531
955.32,      -21.41113
956.23,      -36.94238
957.14,      -44.59961
958.05,      -43.61963
958.96,      -34.56396
959.87,      -20.22217
960.78,      -5.880371
961.69,       6.018555
962.60,       15.42285
963.51,       21.43652
964.42,        23.6792
965.34,       21.68896
966.25,       14.38086
967.16,       2.824707
968.07,      -10.85254
968.99,      -25.35889
969.90,       -39.1543
970.81,      -53.50732
971.72,      -71.10889
972.64,      -91.17285
973.55,      -111.9722
974.46,      -126.5342
975.38,      -124.5474
976.29,      -104.3618
977.21,      -68.90771
978.12,       -28.5415
979.04,      0.1020508
979.95,       12.84229
980.87,        13.1167
981.78,       11.01221
982.70,       23.85791
983.61,       54.02637
984.53,       93.51416
985.45,       130.5952
986.36,       146.9766
987.28,       138.5713
988.20,       113.6436
989.11,       78.66113
990.03,       43.65088
990.95,       13.92139
991.87,      -13.29883
992.79,      -31.62256
993.70,      -31.19678
994.62,       -12.2085
995.54,       22.71631
996.46,       58.89844
997.38,       71.76563
998.30,        56.6792
999.22,       21.34424
