SpectraSmart Spectrum 2.10.0.0
--------- Device Information -----------
Spectrum Name : ,光譜_0
Saving Time : ,2025/05/24 15:20:59
Spectro-Module Model Name :,
Spectro-Module Serial Number :,OS361AC55003443
Wavelength Start :,300
Wavelength End :,1000
Wavelength Unit :,Wavelength(nm)
Spectrum Unit :,Intensity(Counts)
MB Temperature(°C) :,NA
TEC Temperature(°C) :,NA
-----------Spectrum Setting ------------
Integration Time :,800ms
Average :,1
Boxcar :,0
Background removal :, enabled
linearity correction :, enabled
SC :, disabled
Intensity correction :, disabled
DWT denoise :, enabled
savitzky-golay :, disabled
FFT :, disabled
Running average :, disabled
Kalman :, disabled
High pass :, disabled
---------------BEGIN--------------------
Wavelength(nm)      ,   Intensity(Counts)
300.27,      -3.188477
300.89,      -22.86182
301.51,       -43.3418
302.13,      -58.33789
302.75,      -59.71631
303.37,      -46.65088
303.99,      -23.18408
304.62,       2.241699
305.24,       16.72461
305.86,       16.60205
306.48,       5.538086
307.11,      -10.41455
307.73,      -21.77539
308.36,      -23.92285
308.98,      -17.03906
309.61,      -3.979004
310.23,       11.06152
310.86,       25.78271
311.48,       37.55225
312.11,       53.94922
312.74,       86.85449
313.36,        135.396
313.99,       195.8872
314.62,       243.4512
315.25,       238.9355
315.88,       178.5488
316.51,       77.05811
317.14,      -26.29932
317.77,      -68.39209
318.40,      -36.01709
319.03,       49.14307
319.66,       152.1177
320.29,         215.52
320.93,       222.5732
321.56,        192.666
322.19,       139.9028
322.83,       87.34375
323.46,       45.75049
324.10,       6.180664
324.73,      -21.92969
325.37,      -22.11719
326.00,       5.939453
326.64,       59.74268
327.27,       116.7476
327.91,       138.2612
328.55,       116.4175
329.19,       61.95898
329.83,     -0.7338867
330.46,      -30.94141
331.10,      -18.63525
331.74,       22.80957
332.38,        74.2998
333.02,       105.3184
333.66,         106.73
334.31,       88.58008
334.95,       61.12305
335.59,       40.11865
336.23,       30.94629
336.87,       27.96436
337.52,       27.30664
338.16,       23.75098
338.81,       15.91602
339.45,       7.244629
340.09,     0.09814453
340.74,      -3.057617
341.39,      -1.450684
342.03,       3.423828
342.68,       10.20996
343.33,       17.38672
343.97,       23.72852
344.62,       28.72705
345.27,        32.2666
345.92,        34.2417
346.57,       34.74658
347.22,       34.53857
347.87,         32.354
348.52,       26.10352
349.17,       16.59326
349.82,       5.228516
350.47,      -2.901855
351.12,      0.3349609
351.77,       15.37256
352.43,       37.77734
353.08,       61.16699
353.73,       75.33643
354.39,         77.104
355.04,        70.2041
355.70,        54.8667
356.35,       31.84668
357.01,       3.825195
357.66,      -28.55273
358.32,       -56.3291
358.98,      -65.55664
359.63,      -53.82275
360.29,      -24.65674
360.95,       9.768066
361.61,       29.49805
362.27,       28.76221
362.93,       11.38086
363.59,      -11.73096
364.25,       -22.5542
364.91,       -16.3125
365.57,       3.081055
366.23,       23.26465
366.89,       24.40723
367.55,       3.844238
368.22,      -30.91064
368.88,      -61.31885
369.54,      -58.24902
370.21,      -17.35938
370.87,       48.77051
371.54,        118.729
372.20,        159.082
372.87,       160.0078
373.53,       131.6982
374.20,        85.5293
374.87,       39.96484
375.53,       3.789063
376.20,      -25.88818
376.87,      -48.09766
377.54,      -61.25977
378.21,       -65.8125
378.87,      -61.95605
379.54,      -48.99023
380.21,      -27.85547
380.88,     -0.8041992
381.56,       31.68164
382.23,       58.61035
382.90,       63.68213
383.57,       45.18555
384.24,       7.490723
384.92,      -29.99805
385.59,      -35.58887
386.26,      -3.365234
386.94,       56.67236
387.61,       122.1113
388.29,       156.3428
388.96,       150.5054
389.64,       116.4058
390.31,       71.56006
390.99,       44.62598
391.67,       43.27148
392.34,       56.40674
393.02,       75.07617
393.70,       85.62012
394.38,       82.91357
395.06,       73.63916
395.74,       56.96973
396.42,       29.63916
397.10,      -4.657227
397.78,      -41.94678
398.46,      -71.77441
399.14,      -76.71338
399.82,      -54.22314
400.50,      -13.31689
401.19,       40.36182
401.87,       97.26074
402.55,       150.1025
403.24,       200.2095
403.92,       231.8848
404.61,       221.4258
405.29,       168.1543
405.98,       80.64697
406.66,      -10.33838
407.35,      -55.18652
408.03,      -41.79248
408.72,       17.26807
409.41,       93.89551
410.10,       141.1377
410.79,       145.4209
411.47,       119.0493
412.16,        82.4541
412.85,       68.62109
413.54,       85.98438
414.23,       123.4971
414.92,        162.186
415.61,       173.2798
416.31,       151.2871
417.00,       107.6533
417.69,       64.24268
418.38,       54.41895
419.08,       85.61475
419.77,       146.1924
420.46,       215.5103
421.16,       260.9712
421.85,       273.5093
422.55,       263.0161
423.24,       243.4536
423.94,       237.3682
424.64,       251.2573
425.33,         277.21
426.03,       307.3931
426.73,       329.9072
427.42,       341.7998
428.12,       349.3657
428.82,       357.1055
429.52,       370.8408
430.22,       393.4004
430.92,       423.0088
431.62,        461.207
432.32,       510.5332
433.02,       571.2905
433.72,       644.0503
434.43,       725.0684
435.13,       807.7876
435.83,       891.3667
436.53,       978.1021
437.24,       1075.245
437.94,        1193.61
438.65,       1337.188
439.35,       1506.249
440.06,       1693.186
440.76,       1884.705
441.47,       2078.239
442.17,       2275.545
442.88,       2488.536
443.59,       2737.358
444.29,       3019.234
445.00,       3316.738
445.71,       3601.615
446.42,       3833.649
447.13,       3995.912
447.84,       4090.453
448.55,       4125.433
449.26,       4118.683
449.97,       4076.958
450.68,       3998.069
451.39,       3877.604
452.10,       3708.091
452.82,       3495.849
453.53,       3256.263
454.24,       3013.474
454.95,       2799.214
455.67,       2625.814
456.38,       2491.367
457.10,       2384.259
457.81,       2282.254
458.53,       2178.247
459.24,       2076.144
459.96,       1985.687
460.68,       1923.104
461.39,       1888.596
462.11,       1872.111
462.83,       1854.019
463.55,       1805.901
464.27,       1721.912
464.98,       1611.546
465.70,       1494.878
466.42,        1404.26
467.14,       1348.965
467.86,       1320.561
468.58,       1306.581
469.31,        1285.47
470.03,        1252.24
470.75,       1216.761
471.47,       1185.755
472.20,       1169.138
472.92,       1169.425
473.64,       1178.858
474.37,       1198.713
475.09,       1232.698
475.82,       1277.326
476.54,        1330.07
477.27,       1373.707
477.99,       1381.134
478.72,       1348.403
479.45,       1283.978
480.17,       1210.983
480.90,       1167.506
481.63,       1162.752
482.36,       1185.119
483.09,       1216.014
483.81,       1224.843
484.54,        1202.45
485.27,        1158.79
486.00,       1103.502
486.73,       1051.458
487.47,       1009.036
488.20,       972.8198
488.93,       941.6211
489.66,       913.9287
490.39,       890.2578
491.13,       873.9141
491.86,       868.7109
492.59,       878.6338
493.33,       904.2368
494.06,       943.6133
494.80,         991.25
495.53,       1039.206
496.27,       1084.306
497.00,        1126.34
497.74,       1170.355
498.48,       1224.927
499.22,       1292.312
499.95,       1372.354
500.69,        1456.39
501.43,       1529.929
502.17,       1593.261
502.91,        1653.67
503.65,       1729.902
504.39,       1851.546
505.13,       2022.777
505.87,       2230.575
506.61,       2455.995
507.35,       2668.292
508.09,       2858.471
508.83,       3038.688
509.58,       3212.309
510.32,       3384.643
511.06,       3563.738
511.81,       3749.741
512.55,       3961.734
513.30,       4231.119
514.04,       4559.023
514.79,       4929.749
515.53,       5314.969
516.28,       5669.271
517.02,       5976.747
517.77,       6248.346
518.52,       6489.965
519.27,       6712.786
520.01,       6929.019
520.76,       7142.852
521.51,       7370.232
522.26,       7636.661
523.01,       7946.851
523.76,       8290.162
524.51,       8661.238
525.26,       9048.388
526.01,       9439.436
526.76,       9832.543
527.51,       10194.84
528.27,       10478.14
529.02,       10674.61
529.77,       10793.38
530.52,        10885.1
531.28,       11034.08
532.03,        11258.8
532.79,       11537.79
533.54,       11814.02
534.30,       11993.29
535.05,       12055.88
535.81,       12034.09
536.56,       11986.87
537.32,       12007.66
538.08,       12118.78
538.83,       12287.46
539.59,       12466.02
540.35,       12578.85
541.11,       12605.32
541.87,       12573.11
542.63,       12508.42
543.39,       12452.44
544.15,       12418.71
544.91,        12388.8
545.67,       12361.43
546.43,       12336.84
547.19,       12310.21
547.95,       12285.97
548.71,       12242.05
549.48,       12140.25
550.24,       11977.49
551.00,       11766.74
551.77,       11547.24
552.53,       11382.76
553.29,       11287.61
554.06,        11242.2
554.82,       11209.53
555.59,       11129.66
556.36,       10983.55
557.12,       10785.47
557.89,       10557.68
558.66,       10336.67
559.42,       10133.13
560.19,       9936.205
560.96,       9727.031
561.73,       9477.434
562.50,       9183.668
563.27,       8859.034
564.04,       8532.484
564.81,       8246.669
565.58,       8011.862
566.35,       7817.036
567.12,       7631.557
567.89,        7406.04
568.66,       7128.963
569.43,       6814.416
570.21,       6494.796
570.98,       6222.181
571.75,       6007.838
572.53,       5834.397
573.30,       5668.583
574.07,        5457.72
574.85,       5190.813
575.62,       4888.537
576.40,       4582.349
577.17,       4320.776
577.95,       4118.427
578.73,       3960.655
579.50,        3829.48
580.28,       3696.352
581.06,       3550.568
581.84,       3399.157
582.62,       3248.204
583.39,       3107.294
584.17,       2977.457
584.95,       2851.584
585.73,       2721.649
586.51,        2577.28
587.29,       2417.823
588.07,       2250.608
588.86,        2084.82
589.64,       1933.623
590.42,        1802.73
591.20,       1690.023
591.98,       1596.186
592.77,       1520.977
593.55,       1462.202
594.33,       1418.896
595.12,       1383.271
595.90,       1343.419
596.69,        1294.86
597.47,       1236.847
598.26,       1175.418
599.04,       1122.417
599.83,       1080.518
600.62,       1047.956
601.40,        1017.03
602.19,       974.0029
602.98,       921.0474
603.77,       871.2427
604.55,       841.6582
605.34,       855.3696
606.13,       921.5928
606.92,       1034.866
607.71,       1187.467
608.50,       1368.869
609.29,       1562.762
610.08,       1749.205
610.87,       1918.777
611.67,        2062.73
612.46,         2167.2
613.25,       2228.746
614.04,       2207.982
614.84,       2046.339
615.63,       1750.662
616.42,       1357.778
617.22,       953.3149
618.01,       672.8369
618.81,       549.5732
619.60,       543.1577
620.40,       609.0444
621.19,       661.7295
621.99,       680.1045
622.78,       718.7197
623.58,       755.5996
624.38,       751.5073
625.18,       720.4668
625.97,       660.0337
626.77,       703.4751
627.57,       1072.821
628.37,       1775.427
629.17,       2705.905
629.97,       3619.942
630.77,       4139.697
631.57,       4164.379
632.37,        3779.68
633.17,       3162.207
633.97,       2650.068
634.77,       2326.915
635.58,       2033.197
636.38,       1730.514
637.18,       1428.461
637.98,       1116.104
638.79,       806.2607
639.59,       527.2188
640.40,       323.3877
641.20,       205.1108
642.00,       146.0967
642.81,       143.8496
643.62,       203.6157
644.42,       311.1587
645.23,       451.1538
646.03,       587.6724
646.84,       667.5942
647.65,       675.5107
648.46,       621.7134
649.26,       527.8696
650.07,       433.6851
650.88,       355.7891
651.69,        288.585
652.50,       231.8921
653.31,       182.9976
654.12,       140.8091
654.93,       109.8657
655.74,        91.0498
656.55,       81.19531
657.36,       78.79492
658.17,        84.6792
658.98,       90.05957
659.80,       82.60156
660.61,       61.21484
661.42,       27.69287
662.23,      0.8999023
663.05,       12.00098
663.86,       64.58545
664.68,        146.833
665.49,       230.1821
666.31,       269.1348
667.12,       252.9106
667.94,       195.5464
668.75,       121.4399
669.57,       70.42773
670.39,       54.54053
671.20,       62.47412
672.02,       81.12793
672.84,       88.86572
673.66,       79.85791
674.47,         63.729
675.29,       46.92041
676.11,       38.36426
676.93,        40.2041
677.75,       45.75195
678.57,       54.52344
679.39,        67.1123
680.21,        81.9375
681.03,        100.375
681.85,       112.5791
682.68,       102.7222
683.50,       69.42236
684.32,       16.92236
685.14,      -34.62305
685.96,      -52.85986
686.79,      -31.46094
687.61,       20.77295
688.44,       78.72705
689.26,       101.3564
690.08,       79.80469
690.91,       27.05127
691.73,      -31.37012
692.56,      -54.21045
693.39,      -31.99121
694.21,       20.44482
695.04,       81.83398
695.87,       118.5215
696.69,       121.2329
697.52,       102.3164
698.35,       72.97559
699.18,       50.70898
700.00,       41.80811
700.83,       38.88184
701.66,       42.51758
702.49,       54.52832
703.32,       73.10938
704.15,       99.31934
704.98,       122.9414
705.81,       126.2861
706.64,       107.1182
707.47,       70.67139
708.31,       31.75635
709.14,       15.49512
709.97,       26.46533
710.80,       54.58984
711.64,       87.47461
712.47,       104.7056
713.30,       100.6504
714.14,       85.04199
714.97,       59.17822
715.81,       24.43213
716.64,      -13.79639
717.48,      -54.96289
718.31,      -82.22559
719.15,      -68.23145
719.98,      -11.03418
720.82,       77.95459
721.66,       173.6841
722.49,        235.207
723.33,        251.208
724.17,       233.8145
725.01,       195.1733
725.84,       156.8008
726.68,       127.7388
727.52,        100.707
728.36,       81.78809
729.20,       80.98975
730.04,       97.56494
730.88,       130.3525
731.72,       161.8613
732.56,       161.9648
733.40,       125.4697
734.25,       62.08545
735.09,      -7.551758
735.93,        -49.625
736.77,      -54.45898
737.61,       -31.3877
738.46,       6.203613
739.30,       36.44873
740.14,       51.60449
740.99,       56.89453
741.83,       58.64014
742.68,       66.73291
743.52,       83.00586
744.37,       102.5034
745.21,       116.5278
746.06,       113.1172
746.90,       90.30566
747.75,       52.89746
748.60,       13.45996
749.44,      -9.400391
750.29,      -9.851563
751.14,       9.665039
751.99,       35.85986
752.84,       47.39307
753.68,       38.52197
754.53,       11.74658
755.38,      -13.63428
756.23,      -6.586426
757.08,       36.82813
757.93,       107.0552
758.78,        169.604
759.63,       169.9043
760.48,         99.979
761.33,      -20.10938
762.19,      -143.8179
763.04,       -197.147
763.89,      -162.9707
764.74,      -65.19775
765.59,       55.94043
766.45,       135.1143
767.30,       153.1743
768.15,       130.3057
769.01,       88.15527
769.86,       61.66162
770.72,        62.0127
771.57,       75.00049
772.43,       93.52246
773.28,        108.936
774.14,       116.3848
774.99,       120.3506
775.85,       118.7075
776.71,       105.3511
777.56,       81.37744
778.42,       50.97559
779.28,        18.7666
780.14,      -7.230469
780.99,      -23.28125
781.85,      -31.74268
782.71,      -26.99414
783.57,     -0.7749023
784.43,       44.67822
785.29,       104.1421
786.15,       159.5522
787.01,       182.7822
787.87,         167.23
788.73,       120.0669
789.59,       58.25928
790.45,       10.29443
791.31,      -14.67139
792.18,      -22.41064
793.04,      -22.77051
793.90,      -32.84082
794.76,      -56.00293
795.63,      -84.67285
796.49,      -108.6655
797.35,      -112.9854
798.22,      -95.37842
799.08,      -63.87891
799.95,      -28.49805
800.81,      -4.057129
801.68,       4.502441
802.54,       2.001953
803.41,      -9.375488
804.27,      -25.87158
805.14,      -44.09326
806.00,      -64.57764
806.87,      -81.04785
807.74,      -83.18604
808.61,      -69.88232
809.47,      -44.37305
810.34,      -14.62207
811.21,       5.218262
812.08,       11.95166
812.95,        11.1792
813.82,       5.490723
814.68,     0.05371094
815.55,      -3.158203
816.42,      -8.952148
817.29,      -9.782227
818.16,       6.814941
819.04,       40.59375
819.91,       88.81738
820.78,       129.1626
821.65,       125.6611
822.52,       73.19971
823.39,      -16.51318
824.27,      -110.3887
825.14,      -155.4785
826.01,      -139.0342
826.88,      -75.71094
827.76,       2.427246
828.63,       43.53662
829.50,       33.31592
830.38,      -14.47559
831.25,      -71.96191
832.13,      -94.95947
833.00,      -72.30518
833.88,      -16.53467
834.75,       42.96631
835.63,       60.20947
836.51,       26.77246
837.38,      -41.33057
838.26,      -107.4946
839.14,      -113.8838
840.01,      -50.74072
840.89,       58.22559
841.77,       173.6279
842.65,       233.2573
843.53,       221.2114
844.40,       160.5088
845.28,       73.74365
846.16,      -2.878418
847.04,      -53.98828
847.92,      -90.67627
848.80,      -106.4849
849.68,      -90.95557
850.56,        -47.104
851.44,       22.64014
852.32,       93.64551
853.21,       124.4761
854.09,       105.5195
854.97,       46.27393
855.85,            -29
856.73,      -78.94482
857.62,      -91.36426
858.50,      -76.03027
859.38,      -50.10498
860.26,      -42.05371
861.15,      -58.39307
862.03,      -88.64111
862.92,      -115.8906
863.80,      -114.4277
864.69,      -80.15674
865.57,      -25.27881
866.46,       31.64258
867.34,        62.5293
868.23,       59.83496
869.11,       33.34082
870.00,      -6.354492
870.89,      -42.00195
871.77,      -66.77637
872.66,      -85.99951
873.55,      -97.92041
874.43,      -99.90479
875.32,      -92.78906
876.21,       -75.0293
877.10,      -55.18848
877.99,      -48.92285
878.88,      -57.93066
879.77,      -76.84668
880.65,      -93.59082
881.54,      -87.66309
882.43,      -55.60352
883.32,      -7.527832
884.21,       47.20117
885.10,        94.5166
886.00,       127.0991
886.89,       147.6938
887.78,       151.1938
888.67,        130.063
889.56,       87.54834
890.45,       29.02002
891.35,      -31.72119
892.24,      -67.02686
893.13,      -69.54688
894.02,      -61.88965
894.92,      -47.06055
895.81,       3.325195
896.71,       65.80713
897.60,       63.37549
898.49,       7.544434
899.39,      -29.14355
900.28,      -5.647461
901.18,      -3.924316
902.07,      -10.69385
902.97,       2.546387
903.87,       35.47412
904.76,       80.16211
905.66,        119.771
906.55,       127.4688
907.45,       98.79248
908.35,       43.39063
909.25,        -17.604
910.14,      -50.13721
911.04,      -46.10986
911.94,      -16.72803
912.84,       22.04199
913.74,       43.67334
914.63,        40.7627
915.53,       24.00781
916.43,     -0.9238281
917.33,      -25.60645
918.23,      -44.90381
919.13,      -62.42383
920.03,       -70.5957
920.93,      -56.26953
921.83,      -19.66553
922.73,       34.04248
923.63,       88.99512
924.54,       119.0068
925.44,       117.8384
926.34,       93.48682
927.24,       57.49805
928.14,       29.43115
929.05,       16.42285
929.95,       13.06689
930.85,       18.00391
931.76,       28.96289
932.66,       43.12842
933.56,       60.87646
934.47,       77.40088
935.37,        84.0918
936.28,       78.99854
937.18,       64.42236
938.08,        43.2373
938.99,       20.91748
939.90,      0.8320313
940.80,      -17.00439
941.71,      -28.98975
942.61,       -29.9668
943.52,      -19.60645
944.43,      0.1103516
945.33,       24.22998
946.24,       44.44531
947.15,       57.35693
948.05,       63.75439
948.96,       63.98242
949.87,       59.55273
950.78,        51.5835
951.69,       40.02197
952.59,        26.4126
953.50,       13.28223
954.41,       2.230469
955.32,       -5.82666
956.23,      -10.22217
957.14,      -10.55762
958.05,      -7.399902
958.96,      -1.980957
959.87,       5.393555
960.78,       13.94434
961.69,        23.1123
962.60,       33.76514
963.51,       41.36182
964.42,       39.42041
965.34,       27.04541
966.25,       4.418457
967.16,      -17.20752
968.07,      -19.80273
968.99,      -0.590332
969.90,       36.28564
970.81,       71.42432
971.72,       73.45605
972.64,       37.24854
973.55,      -26.97217
974.46,      -92.72656
975.38,      -117.6396
976.29,      -92.53857
977.21,      -31.07471
978.12,       40.55713
979.04,       80.10791
979.95,       76.79248
980.87,       44.56787
981.78,       2.915527
982.70,       -17.1582
983.61,      -6.623535
984.53,       23.51758
985.45,       62.48438
986.36,       94.10986
987.28,       112.1875
988.20,       121.5659
989.11,       124.9404
990.03,       126.0371
990.95,       125.7671
991.87,       121.2227
992.79,       110.8115
993.70,       93.05859
994.62,       68.87988
995.54,       41.74268
996.46,        14.0918
997.38,      -11.16602
998.30,      -32.15576
999.22,       -49.4292
