SpectraSmart Spectrum 2.10.0.0
--------- Device Information -----------
Spectrum Name : ,光譜_0
Saving Time : ,2025/05/24 15:22:46
Spectro-Module Model Name :,
Spectro-Module Serial Number :,OS361AC55003443
Wavelength Start :,300
Wavelength End :,1000
Wavelength Unit :,Wavelength(nm)
Spectrum Unit :,Intensity(Counts)
MB Temperature(°C) :,NA
TEC Temperature(°C) :,NA
-----------Spectrum Setting ------------
Integration Time :,800ms
Average :,1
Boxcar :,0
Background removal :, enabled
linearity correction :, enabled
SC :, disabled
Intensity correction :, disabled
DWT denoise :, enabled
savitzky-golay :, disabled
FFT :, disabled
Running average :, disabled
Kalman :, disabled
High pass :, disabled
---------------BEGIN--------------------
Wavelength(nm)      ,   Intensity(Counts)
300.27,       165.7998
300.89,       166.1504
301.51,       137.8311
302.13,       94.25537
302.75,       57.31348
303.37,        34.9043
303.99,       19.83398
304.62,       10.74268
305.24,       5.713379
305.86,       3.703613
306.48,       8.703613
307.11,       16.29395
307.73,       17.70215
308.36,       11.50586
308.98,      -1.859863
309.61,      -12.59326
310.23,      -4.191895
310.86,        25.5918
311.48,       71.55566
312.11,       117.2388
312.74,       136.6338
313.36,       124.2441
313.99,       87.40088
314.62,       45.15771
315.25,       28.27148
315.88,       43.69043
316.51,       81.89258
317.14,       123.4644
317.77,       137.4258
318.40,       116.2979
319.03,       70.04102
319.66,        16.0918
320.29,      -17.78125
320.93,       -24.7627
321.56,      -14.33252
322.19,    0.004882813
322.83,      -3.462402
323.46,      -29.01416
324.10,      -65.72217
324.73,      -104.2036
325.37,      -130.6582
326.00,      -139.8438
326.64,      -138.0269
327.27,      -122.9434
327.91,       -90.0332
328.55,      -43.19189
329.19,       13.47021
329.83,       64.29883
330.46,       83.90674
331.10,       68.46631
331.74,       28.38574
332.38,      -22.04395
333.02,      -58.90039
333.66,      -73.22656
334.31,      -72.25195
334.95,      -53.07422
335.59,      -12.00586
336.23,       46.37744
336.87,       119.1318
337.52,       185.6636
338.16,        212.915
338.81,       194.1387
339.45,       137.9419
340.09,       66.20752
340.74,       15.95801
341.39,      -1.692871
342.03,       4.629395
342.68,       21.79639
343.33,       27.12109
343.97,       15.00879
344.62,      -5.377441
345.27,      -24.90723
345.92,      -29.87109
346.57,      -18.08008
347.22,       1.676758
347.87,       23.60449
348.52,       39.72412
349.17,       47.08203
349.82,       50.91406
350.47,       46.38379
351.12,       25.51855
351.77,      -9.865723
352.43,      -57.27295
353.08,      -96.34668
353.73,      -94.82813
354.39,      -47.82666
355.04,       34.87793
355.70,       123.6968
356.35,       170.9248
357.01,       164.5405
357.66,       116.4048
358.32,       54.46289
358.98,       24.80029
359.63,       38.69531
360.29,       82.24414
360.95,       129.2783
361.61,       138.1382
362.27,        100.229
362.93,       31.93408
363.59,      -40.14746
364.25,      -75.51514
364.91,      -63.29443
365.57,      -16.62939
366.23,       43.83838
366.89,       86.13135
367.55,       99.37402
368.22,       90.59521
368.88,       73.03027
369.54,       67.67578
370.21,       79.57568
370.87,        102.415
371.54,       119.2524
372.20,       104.5342
372.87,       55.07666
373.53,      -18.98975
374.20,      -90.53711
374.87,      -117.8369
375.53,      -92.08008
376.20,      -25.66309
376.87,        51.5376
377.54,        91.1416
378.21,       81.51025
378.87,       37.36865
379.54,      -14.83887
380.21,      -32.22461
380.88,      -4.688477
381.56,       51.49121
382.23,       114.9712
382.90,       153.0806
383.57,       155.6626
384.24,       133.4546
384.92,       97.62109
385.59,       64.95215
386.26,       42.58496
386.94,       27.11816
387.61,       15.57471
388.29,       3.365723
388.96,      -9.440918
389.64,      -19.13477
390.31,       -19.4458
390.99,      -1.585938
391.67,       33.45361
392.34,       78.14014
393.02,       122.2173
393.70,       150.4268
394.38,       157.8784
395.06,       149.9019
395.74,       127.0596
396.42,       91.01904
397.10,       46.55127
397.78,      -4.767578
398.46,      -48.79102
399.14,      -63.34326
399.82,       -45.2373
400.50,      -1.346191
401.19,             51
401.87,       82.30762
402.55,       85.14355
403.24,       69.28467
403.92,       44.40527
404.61,       27.02344
405.29,       23.30176
405.98,       26.34375
406.66,       38.78467
407.35,       65.80615
408.03,       104.5117
408.72,       151.9814
409.41,       193.6108
410.10,       205.4131
410.79,       182.9688
411.47,       134.4668
412.16,       74.20898
412.85,       25.87354
413.54,      -1.643555
414.23,      -12.87793
414.92,      -10.47705
415.61,    -0.04443359
416.31,       15.34277
417.00,       37.37646
417.69,       63.35107
418.38,        88.3623
419.08,       109.6611
419.77,       125.1172
420.46,       134.5615
421.16,       139.4849
421.85,       140.8013
422.55,       139.8438
423.24,       135.9082
423.94,       127.3066
424.64,       116.2729
425.33,       105.9448
426.03,        103.752
426.73,       120.8594
427.42,       157.9253
428.12,       208.3145
428.82,       263.5918
429.52,       310.7734
430.22,       343.7568
430.92,        364.666
431.62,       370.6387
432.32,       358.0225
433.02,       329.8691
433.72,       290.7939
434.43,        252.479
435.13,       233.1265
435.83,       238.8877
436.53,       266.7007
437.24,       312.8862
437.94,       369.5366
438.65,       432.0122
439.35,       500.8096
440.06,       571.2212
440.76,       636.3281
441.47,       694.3447
442.17,       745.8184
442.88,       795.3062
443.59,       851.1377
444.29,       917.3936
445.00,       995.1626
445.71,       1083.346
446.42,       1178.892
447.13,       1281.769
447.84,       1392.877
448.55,        1517.47
449.26,       1663.262
449.97,       1828.563
450.68,       2006.427
451.39,       2181.484
452.10,       2331.807
452.82,       2448.449
453.53,       2530.904
454.24,       2588.158
454.95,       2637.338
455.67,       2681.764
456.38,       2717.112
457.10,       2727.723
457.81,       2689.221
458.53,        2600.02
459.24,       2471.705
459.96,       2332.949
460.68,        2227.25
461.39,       2166.012
462.11,       2139.977
462.83,       2123.164
463.55,       2071.438
464.27,       1976.237
464.98,       1854.213
465.70,        1731.86
466.42,       1651.364
467.14,       1621.774
467.86,       1624.835
468.58,       1642.203
469.31,       1645.303
470.03,       1624.254
470.75,       1590.816
471.47,       1542.661
472.20,       1475.969
472.92,       1394.876
473.64,       1298.463
474.37,       1211.143
475.09,       1173.517
475.82,       1190.181
476.54,       1248.199
477.27,       1310.216
477.99,       1314.308
478.72,       1247.997
479.45,       1133.588
480.17,       1004.009
480.90,       913.2441
481.63,       877.3384
482.36,       877.1499
483.09,         902.77
483.81,       937.8467
484.54,       972.7515
485.27,        1015.09
486.00,       1048.159
486.73,       1043.636
487.47,       999.6563
488.20,       922.8027
488.93,       845.9907
489.66,       824.9023
490.39,       869.6997
491.13,       961.4204
491.86,       1064.855
492.59,       1122.449
493.33,       1118.501
494.06,       1071.985
494.80,       1003.609
495.53,       946.5059
496.27,       914.3091
497.00,       898.5845
497.74,        898.375
498.48,       912.5039
499.22,       938.4702
499.95,        977.543
500.69,       1025.283
501.43,       1072.648
502.17,       1114.644
502.91,       1149.146
503.65,        1173.06
504.39,       1183.988
505.13,       1182.316
505.87,       1169.986
506.61,       1150.757
507.35,       1130.705
508.09,           1114
508.83,       1102.087
509.58,       1098.749
510.32,       1108.656
511.06,       1131.552
511.81,       1164.578
512.55,       1203.172
513.30,       1239.501
514.04,       1270.359
514.79,       1297.758
515.53,       1318.428
516.28,       1328.159
517.02,       1327.997
517.77,       1318.843
518.52,       1311.807
519.27,       1325.491
520.01,       1361.786
520.76,       1413.307
521.51,       1465.479
522.26,       1493.946
523.01,        1493.71
523.76,       1475.723
524.51,       1447.875
525.26,        1422.89
526.01,       1407.559
526.76,       1397.302
527.51,       1402.297
528.27,       1438.885
529.02,       1505.528
529.77,       1595.183
530.52,       1682.183
531.28,       1724.915
532.03,       1714.659
532.79,       1664.361
533.54,       1597.558
534.30,       1553.719
535.05,       1545.241
535.81,       1561.165
536.56,       1592.981
537.32,       1625.547
538.08,       1653.556
538.83,       1684.908
539.59,        1716.59
540.35,       1742.422
541.11,       1761.856
541.87,       1772.467
542.63,       1785.963
543.39,       1822.947
544.15,       1885.608
544.91,       1967.785
545.67,       2046.756
546.43,       2086.407
547.19,       2079.362
547.95,       2035.758
548.71,       1983.439
549.48,       1967.122
550.24,       1997.756
551.00,       2063.467
551.77,       2135.995
552.53,       2169.865
553.29,       2154.775
554.06,       2105.339
554.82,       2052.235
555.59,       2043.035
556.36,       2089.709
557.12,       2179.021
557.89,       2279.756
558.66,       2342.554
559.42,       2355.935
560.19,       2333.975
560.96,       2310.317
561.73,       2338.861
562.50,       2428.762
563.27,       2558.379
564.04,       2688.216
564.81,       2756.793
565.58,       2749.606
566.35,       2688.667
567.12,       2605.157
567.89,       2548.456
568.66,       2535.014
569.43,       2550.534
570.21,       2583.496
570.98,       2615.331
571.75,       2637.953
572.53,       2657.705
573.30,       2673.757
574.07,       2683.047
574.85,       2684.896
575.62,       2677.441
576.40,       2661.548
577.17,       2640.962
577.95,       2617.856
578.73,       2593.134
579.50,       2569.094
580.28,       2548.583
581.06,         2532.3
581.84,       2519.396
582.62,       2508.786
583.39,       2498.482
584.17,       2486.566
584.95,       2472.519
585.73,       2454.443
586.51,       2428.805
587.29,       2397.234
588.07,       2364.936
588.86,       2333.551
589.64,       2306.058
590.42,       2283.712
591.20,       2261.735
591.98,       2251.173
592.77,       2269.445
593.55,       2315.019
594.33,       2381.743
595.12,       2435.435
595.90,       2422.193
596.69,        2333.94
597.47,       2188.241
598.26,       2032.659
599.04,        1943.87
599.83,       1940.788
600.62,       2002.094
601.40,        2085.85
602.19,       2123.067
602.98,       2095.492
603.77,       2024.888
604.55,       1943.151
605.34,       1900.676
606.13,       1910.643
606.92,       1954.478
607.71,       2007.947
608.50,       2034.717
609.29,       2024.353
610.08,       1989.154
610.87,       1945.916
611.67,       1920.098
612.46,       1918.392
613.25,       1931.349
614.04,        1945.35
614.84,       1940.113
615.63,       1910.387
616.42,        1863.27
617.22,       1810.508
618.01,       1769.984
618.81,       1746.496
619.60,       1734.866
620.40,       1725.338
621.19,       1702.184
621.99,       1662.861
622.78,       1614.726
623.58,       1567.956
624.38,       1538.163
625.18,       1528.839
625.97,       1532.687
626.77,       1543.882
627.57,        1553.65
628.37,       1557.128
629.17,       1556.229
629.97,       1545.757
630.77,       1517.741
631.57,       1472.433
632.37,       1412.419
633.17,       1348.825
633.97,       1300.406
634.77,        1271.23
635.58,       1255.722
636.38,       1245.245
637.18,       1224.431
637.98,       1189.689
638.79,       1148.456
639.59,       1102.699
640.40,       1055.542
641.20,       1009.726
642.00,       962.3628
642.81,       924.2109
643.62,       912.5659
644.42,       928.7769
645.23,       968.7554
646.03,       1008.946
646.84,       1011.453
647.65,       968.7261
648.46,       890.4595
649.26,        807.394
650.07,         769.29
650.88,       787.4214
651.69,       847.8467
652.50,       916.1689
653.31,       937.4858
654.12,       898.6045
654.93,       814.9268
655.74,       722.3999
656.55,        678.332
657.36,       695.1875
658.17,       754.5073
658.98,       817.3057
659.80,       821.9814
660.61,       755.8145
661.42,       641.2852
662.23,       518.2183
663.05,       449.0503
663.86,        449.707
664.68,       499.4717
665.49,       568.6094
666.31,       609.5435
667.12,       608.5591
667.94,       582.1895
668.75,        545.522
669.57,       522.2544
670.39,       519.4365
671.20,       525.0073
672.02,       536.2148
672.84,       550.7559
673.66,        565.374
674.47,       583.3496
675.29,       593.6245
676.11,        577.188
676.93,       532.6685
677.75,       465.6865
678.57,       398.1299
679.39,       365.6519
680.21,       375.5947
681.03,       417.3931
681.85,       467.2798
682.68,       486.4658
683.50,       464.9282
684.32,       414.2246
685.14,       353.4932
685.96,       313.5962
686.79,       303.1479
687.61,       312.4399
688.44,       327.9839
689.26,       328.6211
690.08,       309.2983
690.91,       278.6787
691.73,        247.603
692.56,       232.2188
693.39,       236.3706
694.21,       252.7793
695.04,       273.6987
695.87,       287.9678
696.69,       290.9165
697.52,       285.2422
698.35,       272.2764
699.18,       253.8755
700.00,       232.3677
700.83,       209.0776
701.66,       185.4204
702.49,       163.7686
703.32,       146.0923
704.15,       132.6523
704.98,       128.6245
705.81,       141.1914
706.64,       169.8467
707.47,       211.0366
708.31,        252.749
709.14,       276.1851
709.97,       276.6553
710.80,        258.354
711.64,       232.1006
712.47,       216.4956
713.30,       216.0693
714.14,       224.7852
714.97,       234.1245
715.81,       230.2881
716.64,       210.1338
717.48,       179.9404
718.31,       145.5151
719.15,       115.3555
719.98,       92.86084
720.82,       75.29443
721.66,       63.12158
722.49,       57.09326
723.33,        56.4873
724.17,       61.88135
725.01,       68.95361
725.84,       70.13232
726.68,       64.33545
727.52,       53.72754
728.36,       44.40967
729.20,       46.53516
730.04,       62.26514
730.88,       87.76465
731.72,       117.0234
732.56,       140.9824
733.40,       155.4844
734.25,       160.8599
735.09,       159.7046
735.93,         156.25
736.77,       152.2896
737.61,       148.7227
738.46,       139.5723
739.30,       115.9404
740.14,       77.65723
740.99,       27.01611
741.83,      -18.06104
742.68,      -30.12695
743.52,      -4.641113
744.37,       51.99951
745.21,       110.7891
746.06,       124.9541
746.90,       85.69287
747.75,       6.714355
748.60,       -74.2666
749.44,      -96.74023
750.29,      -47.62012
751.14,       54.00586
751.99,       167.3916
752.84,        227.939
753.68,       218.6416
754.53,       157.2119
755.38,       79.56836
756.23,       43.51855
757.08,       62.81689
757.93,       118.7251
758.78,       176.7944
759.63,       182.8647
760.48,        126.168
761.33,       28.69531
762.19,       -74.5127
763.04,      -129.9629
763.89,      -122.9512
764.74,       -70.7207
765.59,       2.440918
766.45,       58.22461
767.30,       83.44873
768.15,       87.87354
769.01,       82.61865
769.86,       85.58105
770.72,       100.7944
771.57,       119.5757
772.43,       131.6543
773.28,       122.8545
774.14,       91.42139
774.99,       45.78662
775.85,       -2.58252
776.71,      -37.09033
777.56,      -52.26318
778.42,       -52.7627
779.28,      -42.64063
780.14,       -28.9375
780.99,      -15.37891
781.85,     -0.2587891
782.71,       13.36719
783.57,       20.38867
784.43,       20.45752
785.29,        14.7168
786.15,       7.745605
787.01,       7.938965
787.87,       17.38574
788.73,       33.13037
789.59,       53.14893
790.45,       73.96533
791.31,       93.14697
792.18,       111.0278
793.04,       124.2261
793.90,       127.3945
794.76,       120.2603
795.63,       104.9551
796.49,       86.46777
797.35,       73.14795
798.22,       67.70215
799.08,       68.15479
799.95,       73.17188
800.81,       79.98145
801.68,       86.95508
802.54,       94.80518
803.41,       101.1411
804.27,        102.144
805.14,       97.06885
806.00,       86.29443
806.87,        73.3125
807.74,       64.16943
808.61,       60.55273
809.47,       61.52197
810.34,        63.4917
811.21,       60.44678
812.08,       51.20264
812.95,       37.55225
813.82,       24.53125
814.68,       19.98682
815.55,       25.30762
816.42,       37.81592
817.29,       50.74463
818.16,       53.60205
819.04,       43.91357
819.91,       24.65088
820.78,       3.199707
821.65,      -8.772949
822.52,      -7.993652
823.39,       3.251953
824.27,       17.86865
825.14,       24.02441
826.01,       19.95166
826.88,       10.05225
827.76,       3.303711
828.63,       14.43799
829.50,       44.48633
830.38,       84.54346
831.25,       125.5371
832.13,       153.0811
833.00,       163.3188
833.88,        164.334
834.75,       152.6602
835.63,       123.3086
836.51,        79.2085
837.38,       20.02637
838.26,      -28.77197
839.14,      -26.65234
840.01,       30.94678
840.89,       132.3115
841.77,       233.0859
842.65,        261.458
843.53,       203.0664
844.40,       79.70166
845.28,      -58.76709
846.16,      -131.1509
847.04,      -117.6045
847.92,      -43.36035
848.80,       49.98242
849.68,       94.99756
850.56,       74.39893
851.44,       12.69092
852.32,      -61.56152
853.21,      -104.0146
854.09,      -101.5396
854.97,      -71.77441
855.85,      -26.78467
856.73,       16.12354
857.62,       48.96436
858.50,       78.83789
859.38,       101.3262
860.26,       107.7378
861.15,       98.68213
862.03,       75.58252
862.92,       51.26172
863.80,       48.11523
864.69,       70.42334
865.57,       111.0903
866.46,       157.3325
867.34,       187.6606
868.23,       195.7637
869.11,       188.3804
870.00,       170.8848
870.89,       152.3022
871.77,       136.4824
872.66,       119.9653
873.55,       105.2544
874.43,       96.76758
875.32,       94.80225
876.21,       99.65381
877.10,        104.625
877.99,       98.11035
878.88,       77.78662
879.77,       46.29102
880.65,       13.16992
881.54,      -6.151855
882.43,      -7.864746
883.32,       4.728027
884.21,       20.38086
885.10,       20.87109
886.00,       2.569824
886.89,      -29.15527
887.78,      -59.56104
888.67,       -65.5498
889.56,      -43.13086
890.45,      0.1401367
891.35,       46.26709
892.24,       63.98584
893.13,       46.72363
894.02,       11.82764
894.92,      -26.41602
895.81,      -53.51709
896.71,      -50.68457
897.60,      -5.024902
898.49,       51.32178
899.39,       147.9219
900.28,        77.8418
901.18,       39.00781
902.07,      -9.964355
902.97,      -50.94873
903.87,      -76.11279
904.76,       -87.4541
905.66,      -85.28613
906.55,      -75.55518
907.45,      -60.30957
908.35,      -37.11963
909.25,      -10.31836
910.14,       12.33594
911.04,        28.4873
911.94,       37.34912
912.84,        43.3501
913.74,       55.59619
914.63,       74.83057
915.53,       96.93945
916.43,       114.7725
917.33,       117.0259
918.23,       102.0859
919.13,       75.99219
920.03,        45.1709
920.93,       19.20898
921.83,       2.583008
922.73,      -6.663574
923.63,      -6.574707
924.54,       5.564453
925.44,       27.93506
926.34,        57.9165
927.24,       87.74121
928.14,       105.0942
929.05,       106.1631
929.95,       93.42041
930.85,       70.56885
931.76,       44.58008
932.66,       19.33936
933.56,      -5.108398
934.47,      -26.71533
935.37,       -42.7417
936.28,       -52.2334
937.18,      -55.09424
938.08,      -50.99219
938.99,      -40.62891
939.90,      -25.28467
940.80,       -5.40332
941.71,       14.11621
942.61,       25.92432
943.52,       28.65576
944.43,       23.54785
945.33,       16.96191
946.24,       20.06494
947.15,       34.29932
948.05,        54.6626
948.96,       73.80811
949.87,       80.07422
950.78,        70.4082
951.69,       49.59424
952.59,       20.64502
953.50,      -11.68115
954.41,      -43.89746
955.32,      -76.08057
956.23,      -102.2568
957.14,       -114.019
958.05,      -108.8267
958.96,      -86.17871
959.87,      -54.84619
960.78,      -29.38574
961.69,      -14.51807
962.60,      -11.02686
963.51,      -6.201172
964.42,       21.41162
965.34,       73.36523
966.25,       142.3745
967.16,       200.5601
968.07,       204.2813
968.99,       147.2676
969.90,       44.90527
970.81,      -64.25586
971.72,      -118.4429
972.64,      -103.8247
973.55,      -40.33008
974.46,       37.77539
975.38,       74.49512
976.29,       54.80908
977.21,      -1.406738
978.12,       -73.6875
979.04,      -130.1597
979.95,       -158.229
980.87,      -167.4819
981.78,      -159.9941
982.70,      -137.8916
983.61,       -105.187
984.53,      -62.19824
985.45,      -14.88965
986.36,       25.96582
987.28,       55.33838
988.20,       72.84961
989.11,       76.34961
990.03,       64.44971
990.95,       39.97119
991.87,       7.010742
992.79,      -26.58203
993.70,      -48.92383
994.62,       -55.3916
995.54,      -48.29639
996.46,      -27.44336
997.38,       6.487793
998.30,       48.80664
999.22,       95.20361
